File: ml_for_opvs/data/raw/OPV_Min/Machine Learning OPV Parameters - device_params.csv
 ,ref number from paper,reference link,DOI,Donor Molecule,HOMO_D (eV),LUMO_D (eV),Acceptor Molecule,HOMO_A (eV),LUMO_A (eV),D:A ratio (m/m),solvent,total solids conc. (mg/mL),solvent additive,solvent additive conc. (% v/v),active layer thickness (nm),temperature of thermal annealing (leave gap if not annealed),hole contact layer,electron contact layer,hole mobility blend (cm^2 V^-1 s^-1),electron mobility blend,effective mobility,Langevin prefactor,Voc vs ln(I) slope,Voc (V),Jsc (mA cm^-2),FF (%),PCE (%),calc_PCE
1,5,link,10.1002/aenm.201801214,PBDT-TT,-5.23,-3.34,6TIC,-5.45,-3.94,01:01.5,DCB,25,,,100,,PEDOT:PSS,C60-bissalt,6.06E-05,3.04E-05,,,,0.812,19.1,61,9.46,9.461
52,5,link,10.1002/aenm.201801214,PBDT-TT,-5.23,-3.34,ITIC,-5.6,-3.86,01:01.5,DCB,25,,,100,,PEDOT:PSS,C60-bissalt,9.28E-05,4.21E-05,,,,0.849,15.8,65,8.72,8.719
63,5,link,10.1002/aenm.201801214,PBDT-TT,-5.23,-3.34,IT-M,-5.58,-3.82,01:01.5,DCB,25,,,100,,PEDOT:PSS,C60-bissalt,1.43E-04,5.50E-05,,,,0.904,16.5,67,9.99,9.994
2,6,link,10.1016/j.scib.2018.05.025,J71,-5.44,-3.45,A201,-5.69,-3.93,1:01,CF,,,,,,PEDOT:PSS,Ca,9.56E-04,5.17E-04,,,,0.88,13.15,67.15,9.36,7.771
3,7,link,10.1002/aenm.201801582,J52,-5.13,-3.22,BTA13,-5.34,-3.62,1:01,CF,12,CN,0.5,105,170,PEDOT:PSS,Ca,5.86E-04,2.80E-04,,,1.173,1.05,12.7,58.66,7.82,7.822
4,7,link,10.1002/aenm.201801582,J52-F,-5.29,-3.38,BTA13,-5.34,-3.62,1:01,CF,12,CN,0.5,108,150,PEDOT:PSS,Ca,3.87E-04,6.15E-05,,,1.282,1.18,11.55,61.34,8.36,8.36
5,7,link,10.1002/aenm.201801582,J52-FS,-5.32,-3.39,BTA13,-5.34,-3.62,1:01,CF,12,CN,0.5,96,150,PEDOT:PSS,Ca,1.40E-04,1.73E-05,,,1.419,1.24,6.74,45.96,3.84,3.841
6,8,link,10.1039/C7EE00844A,J61,-5.22,-3.21,BT-IC,-5.32,-3.85,1:01,CF,16,,,130,120,PEDOT:PSS,PDINO,6.15E-04,4.95E-04,,,,0.87,16.35,67.1,9.56,9.545
7,8,link,10.1039/C7EE00844A,J71,-5.25,-3.18,BT-IC,-5.32,-3.85,01:01.5,CF,16,,,130,120,PEDOT:PSS,PDINO,3.53E-04,7.60E-04,,,,0.9,17.75,65.7,10.46,10.496
8,9,link,10.1002/adma.201604155,J51,-5.2,-3.01,IDIC,-5.69,-3.91,1:01,CF,12,,,100,,MoOx,ZnO,3.40E-05,2.50E-04,,,,0.796,12.24,66,6.94,6.43
9,9,link,10.1002/adma.201604155,PDBT-T1,-5.36,-3.43,IDIC,-5.69,-3.91,1:01,CF,12,DIO,0.25,100,,MoOx,ZnO,6.30E-05,5.20E-04,,,,0.834,16.98,73.2,10.37,10.366
10,9,link,10.1002/adma.201604155,PDCBT,-5.32,-3.3,IDIC,-5.69,-3.91,1:01,CF,12,,,100,,MoOx,ZnO,1.70E-05,1.20E-04,,,,0.814,11.31,64.1,6.28,5.901
11,9,link,10.1002/adma.201604155,PTB7-Th,-5.2,-3.56,IDIC,-5.69,-3.91,1:01,CF,12,,,100,,MoOx,ZnO,2.10E-05,1.70E-04,,,,0.806,10.9,56.1,5.24,4.929
12,9,link,10.1002/adma.201604155,PTFBDT-BZS,-5.43,-3.58,IDIC,-5.69,-3.91,1:01,CF,12,DIO,0.25,100,,MoOx,ZnO,6.20E-05,9.20E-04,,,,0.905,17.3,70.8,11.03,11.085
13,10,link,10.1039/C7TA07049G,J61,-5.32,-3.08,IDT-IC,-5.69,-3.88,1:01,CF,,,,120,160,PEDOT:PSS,PDINO,4.85E-04,1.60E-04,,,,0.88,13.7,57.3,6.95,6.908
81,10,link,10.1039/C7TA07049G,J61,-5.32,-3.08,SJ-IC,-5.61,-3.94,1:01,CF,,,,120,160,PEDOT:PSS,PDINO,3.10E-04,6.29E-04,,,,0.83,16.99,65.95,9.27,9.3
14,11,link,10.103/C8TA00764K,J71,-5.4,-3.24,IDTT-BH,-5.24,-3.86,01:01.4,CF,12,,,100,,PEDOT:PSS,PDINO,2.02E-04,1.63E-04,,,,0.9,17.77,69.1,11.05,11.051
15,11,link,10.103/C8TA00764K,PBDB-T,-5.33,-2.92,IDTT-BH,-5.24,-3.86,01:00.8,CF,9,,,90,100,PEDOT:PSS,PDINO,1.88E-04,8.88E-04,,,,0.85,16.86,69.2,9.92,9.917
16,11,link,10.103/C8TA00764K,PDCBT,-5.31,-3,IDTT-BH,-5.24,-3.86,01:01.2,CF,11,,,120,120,PEDOT:PSS,PDINO,1.82E-04,1.33E-04,,,,0.88,17.15,68.6,10.35,10.353
17,11,link,10.103/C8TA00764K,J71,-5.4,-3.24,IDTT-OBH,-5.41,-3.86,1:01,CF,10,,,100,,PEDOT:PSS,PDINO,1.52E-04,4.09E-05,,,,0.92,14.75,61,8.02,8.278
18,11,link,10.103/C8TA00764K,PBDB-T,-5.33,-2.92,IDTT-OBH,-5.41,-3.86,01:00.8,CF,9,,,90,110,PEDOT:PSS,PDINO,1.84E-04,9.78E-05,,,,0.87,17.46,72,10.93,10.937
19,11,link,10.103/C8TA00764K,PDCBT,-5.31,-3,IDTT-OBH,-5.41,-3.86,01:01.2,CF,11,,,100,120,PEDOT:PSS,PDINO,1.72E-04,8.18E-05,,,,0.91,13.97,64.8,8.24,8.238
20,12,link,10.1002/adma.201703080,J52,,,IEICO-4Cl,-5.56,-4.23,01:01.5,CB,10,DIO,1,110,150,PEDOT:PSS,PFN-Br,,,,,,0.7,23.8,60.7,10.1,10.113
21,12,link,10.1002/adma.201703080,PBDB-T,,,IEICO-4Cl,-5.56,-4.23,1:01,CB,10,DIO,1,100,150,PEDOT:PSS,PFN-Br,,,,,,0.744,20.8,62.5,9.67,9.672
22,12,link,10.1002/adma.201703080,PTB7-Th,,,IEICO-4Cl,-5.56,-4.23,01:01.5,CB,10,DIO,1,110,150,PEDOT:PSS,PFN-Br,,,,,,0.727,22.8,62,10.3,10.277
23,13,link,10.1021/acenergylett.8b00627,J52,,,IEICO-4F,-5.1098,-3.3772,01:01.3,CB,24,,,85,130,MoOx,ZnO,1.11E-04,1.35E-04,,,,0.704,20.48,56.9,8.2,8.204
24,13,link,10.1021/acenergylett.8b00627,J52,,,i-IEICO-4F,-5.0183,-3.3307,1:01,CB,24,,,85,130,MoOx,ZnO,2.59E-04,3.83E-04,,,,0.849,22.86,67.9,13.18,13.178
25,14,link,10.1002/adma.201706124,J71,-5.4,-3.24,ITCPTC,-5.54,-3.45,1:01,CF,,,,110,150,PEDOT:PSS,PDINO,7.13E-04,5.31E-04,,,,0.896,17.52,74.1,11.63,11.632
67,14,link,10.1002/adma.201706124,J71,-5.4,-3.24,MeIC,-5.57,-3.92,1:01,CF,,,,110,150,PEDOT:PSS,PDINO,8.38E-04,7.39E-04,,,,0.918,18.41,74.2,12.54,12.54
26,15,link,10.1007/s11426-016-0173-y,J40,-5.4,-2.9,ITIC,,,1:01,CF,16,,,,120,PEDOT:PSS,PDINO,3.70E-05,1.44E-04,,,,0.89,12.18,60.13,6.48,6.518
27,16,link,10.1002/adma.201601595,J50,-5.13,-3.16,ITIC,-5.48,-3.83,1:02,CF,18,,,,150,PEDOT:PSS,PDINO,6.30E-05,2.20E-05,,0.895,,0.71,12.93,53,4.8,4.866
28,16,link,10.1002/adma.201601595,J51,-5.26,-3.08,ITIC,-5.48,-3.83,1:02,CF,18,,,,150,PEDOT:PSS,PDINO,2.05E-04,8.60E-05,,0.967,,0.82,16.47,69,9.26,9.319
29,17,link,10.1021/jacs.6b01744,J52,-5.21,-2.99,ITIC,-5.48,-3.83,1:01,CF,20,,,,100,PEDOT:PSS,PDINO,,,,,,0.73,13.11,57.8,5.51,5.532
30,17,link,10.1021/jacs.6b01744,J60,-5.32,-3.08,ITIC,-5.48,-3.83,1:01,CF,20,,,,100,PEDOT:PSS,PDINO,,,,,,0.91,16.33,60.38,8.97,8.973
31,17,link,10.1021/jacs.6b01744,J61,-5.32,-3.08,ITIC,-5.48,-3.83,1:01,CF,20,,,,100,PEDOT:PSS,PDINO,4.96E-04,2.16E-04,,,,0.89,17.43,61.48,9.53,9.537
32,18,link,10.1021/jacs.6b09110,J61,,,ITIC,-5.54,-3.84,1:01,CF,20,,,120,130,PEDOT:PSS,PDINO,2.07E-04,1.05E-04,,,,0.898,17.97,65.49,10.57,10.568
70,18,link,10.1021/jacs.6b09110,J61,,,m-ITIC,-5.52,-3.82,1:01,CF,20,,,120,130,PEDOT:PSS,PDINO,1.54E-04,1.30E-04,,,,0.912,18.31,70.55,11.77,11.781
33,19,link,10.1007/s11426-017-9030-9,J61-F,-5.45,-2.91,ITIC,-5.51,-3.83,01:01.5,CF,18,,,100,170,PEDOT:PSS,PDINO,7.40E-05,1.10E-04,,,,0.95,13.12,66.1,8.24,8.239
34,20,link,10.1021/acs.macromol.8b01036,J62,-5.31,-3.08,ITIC,-5.48,-3.83,1.5:1,CF,18,,,263,,PEDOT:PSS,PDINO,1.23E-04,4.95E-04,,,,0.904,16.12,62.36,9.09,9.087
35,20,link,10.1021/acs.macromol.8b01036,J63,-5.28,-3.04,ITIC,-5.48,-3.83,1.5:1,CF,18,,,166.5,,PEDOT:PSS,PDINO,8.18E-05,3.37E-04,,,,0.882,15.72,53.11,7.38,7.364
36,20,link,10.1021/acs.macromol.8b01036,J64,-5.33,-3.09,ITIC,-5.48,-3.83,1.5:1,CF,18,,,321,,PEDOT:PSS,PDINO,6.54E-05,3.55E-04,,,,0.908,15.22,54.32,7.51,7.507
37,21,link,10.1002/aenm.201700746,J81,-5.43,-2.98,m-ITIC,-5.52,-3.82,1:01,CF,18,,,,160,PEDOT:PSS,PDINO,3.66E-04,4.06E-04,,,,0.95,15.27,73.08,10.6,10.601
76,21,link,10.1002/aenm.201700746,J81,-5.43,-2.98,m-ITIC,-5.52,-3.82,1:01,CF,18,,,,160,PEDOT:PSS,PDINO,4.08E-04,4.67E-04,,,,0.96,16.47,69.83,11.05,11.041
38,22,link,10.1002/aenm.201700834,PBDT(T)[2F]T,,,ITIC,-5.48,-3.83,5:05,CB,,,,65,160,MoOx,ZnO,3.00E-05,1.20E-05,,,,0.94,16.9,62,9.8,9.849
39,22,link,10.1002/aenm.201700834,PBDT[2F]T,,,ITIC,-5.48,-3.83,6:04,CB,,,,70,,MoOx,ZnO,1.50E-05,1.00E-05,,,,0.94,11.6,53,5.8,5.779
40,22,link,10.1002/aenm.201700834,PBDT[2H]T,,,ITIC,-5.48,-3.83,5:05,CB,,,,80,160,MoOx,ZnO,5.70E-06,2.20E-05,,,,0.79,7.6,41,2.5,2.462
119,22,link,10.1002/aenm.201700834,PBDT(2F)T,,,ITIC,,,,,,,,,,,,,,,,,0.79,7.6,41,2.5,2.462
120,22,link,10.1002/aenm.201700834,PBDT(2H)T,,,ITIC,,,,,,,,,,,,,,,,,0.96,10.3,53,5.4,5.241
121,22,link,10.1002/aenm.201700834,PBDT(T)(2F)T,,,ITIC,,,,,,,,,,,,,,,,,0.94,16.9,62,9.8,9.849
41,23,link,10.1002/adfm.201706517,PBDT-2TC,-5.43,-3.57,ITIC,-5.51,-3.84,1:01,CB,16,,,110,120,PEDOT:PSS,C60-bissalt,2.07E-04,2.92E-04,,,,0.93,15.3,65.7,9.35,9.348
47,23,link,10.1002/adfm.201706517,PBDT-S-2TC,-5.47,-3.58,ITIC,-5.51,-3.84,1:01,CB,16,,,110,120,PEDOT:PSS,C60-bissalt,2.11E-04,2.83E-04,,,,0.96,16.4,64.3,10.12,10.123
42,24,link,10.1021/acs.macromol.6b02733,PBDT-DTN,-5.37,-3.53,ITIC,,,4:06,CF,,DPE,4,90,,PEDOT:PSS,Ca,1.44E-03,2.61E-03,,,,0.92,13.8,65,8.3,8.252
43,25,link,10.1002/adfm.201706404,PBDT-FBT,-5.14,-3.35,ITIC,-5.48,-3.83,1:01,CB,20,DIO,0.5,99,,MoOx,ZnO,5.07E-05,1.47E-05,,,,0.82,13.73,63.8,7.15,7.183
44,25,link,10.1002/adfm.201706404,PBDTF-FBT,-5.34,-3.53,ITIC,-5.48,-3.83,1:01,CB,20,DIO,0.5,107,,MoOx,ZnO,2.29E-04,1.09E-04,,,,0.9,15.38,66.3,9.17,9.177
48,25,link,10.1002/adfm.201706404,PBDTS-FBT,-5.2,-3.4,ITIC,-5.48,-3.83,1:01,CB,20,DIO,0.5,104,,MoOx,ZnO,1.08E-04,3.65E-05,,,,0.89,14.63,65.9,8.58,8.581
49,25,link,10.1002/adfm.201706404,PBDTSF-FBT,-5.41,-3.6,ITIC,-5.48,-3.83,1:01,CB,20,DIO,0.5,109,,MoOx,ZnO,4.70E-04,2.76E-04,,,,1.03,17.09,66.3,11.66,11.671
45,26,link,10.1002/adfm.201701491,PBDT-NQx,-5.24,-3.42,ITIC,-5.48,-3.83,01:00.8,CB,20,DIO,2,110,,MoOx,ZnO,1.80E-04,5.60E-05,,,,0.87,16.21,64.6,9.11,9.11
46,26,link,10.1002/adfm.201701491,PBDTS-NQx,-5.31,-3.46,ITIC,-5.48,-3.83,01:00.8,CB,20,DIO,2,109,,MoOx,ZnO,2.50E-04,1.30E-04,,,,0.92,17.86,69.8,11.47,11.47
50,27,link,10.1002/adma.201703973,PBDTS-TDZ,-5.39,-2.8,ITIC,-5.48,-3.83,1:01,o-xylene,20,,,100,,PEDOT:PSS,MoOx,1.20E-03,7.20E-04,,,,1.1,17.78,65.4,12.8,12.791
51,27,link,10.1002/adma.201703973,PBDT-TDZ,-5.35,-2.78,ITIC,-5.48,-3.83,1:01,o-xylene,20,,,100,,PEDOT:PSS,MoOx,4.10E-04,2.30E-04,,,,1.02,15.91,58.1,9.43,9.429
53,28,link,10.1039/C7TA06476D,PBFZ-OP,-5.33,-3.01,ITIC,-5.6,-3.85,1:01,CF,16,,,,160,ZnO,MoOx,3.25E-04,2.62E-04,,,,0.91,18.7,61.8,10.5,10.517
54,29,link,10.1039/C7TA02075A,PSBZ,-5.37,-3.47,ITIC,-5.6,-3.85,1:01,CB,20,,,,140,ZnO,MoOx,1.70E-04,1.16E-03,,,,0.89,19,62,10.5,10.484
55,30,link,10.1039/C8TA05800H,J71,-5.4,-3.65,ITIC1,-5.48,-3.86,1:01,CF,14,,,100,100,PEDOT:PSS,ZrAcAc,3.10E-04,2.30E-04,,,,0.92,14.94,61.2,8.47,8.412
56,30,link,10.1039/C8TA05800H,J71,-5.4,-3.65,ITIC5,-5.48,-3.95,1:01,CF,14,,,100,100,PEDOT:PSS,ZrAcAc,6.30E-04,6.90E-04,,,,0.892,18.35,74.7,12.2,12.227
57,31,link,10.1002/adma.201800737,PBDT-ODZ,-5.68,-2.89,ITIC-Th,-5.78,-3.74,1:01,CB,20,,,100,,CuSCN,PFN-Br,2.20E-04,4.30E-04,,,,1.08,15.52,60.4,10.12,10.124
568,31,link,10.1002/adma.201800737,PBDT-ODZ,-5.45,-3.38,ITIC-Th,-5.62,-4.01,1:01,CB,20,CuI,4,100,,CuSCN,PFN-Br,1.10E-03,8.50E-04,,,,1.06,17.1,68.1,12.34,12.344
58,32,link,10.1002/adma.201700144,FTAZ,-5.38,-3.17,ITIC-Th,-5.66,-3.93,01:01.5,CF,12,DIO,0.25,120,,MoOx,ZnO,2.40E-02,4.50E-03,,,,0.915,15.84,61.26,8.88,8.879
59,32,link,10.1002/adma.201700144,FTAZ,-5.38,-3.17,ITIC-Th1,-5.74,-4.01,01:01.5,CF,12,DIO,0.25,120,,MoOx,ZnO,2.70E-02,7.60E-03,,,,0.849,19.33,73.73,12.1,12.1
60,33,link,10.1039/C7QM00547D,FTAZ,-5.38,-3.17,ITIC-Th2,-5.75,-4.07,01:01.5,CF,12.5,DIO,0.25,100,,MoOx,ZnO,1.30E-03,5.10E-04,,,,0.751,17.19,70.07,9.06,9.046
61,33,link,10.1039/C7QM00547D,FTAZ,-5.38,-3.17,ITIC-Th3,-5.67,-3.73,01:01.5,CF,12.5,DIO,0.25,100,,MoOx,ZnO,2.40E-03,7.20E-04,,,,0.962,16.34,68.33,10.7,10.741
62,34,link,10.1002/adma.201700437,J52,-5.21,-2.99,IT-M,-5.56,-3.98,1:01,CB,12,DIO,0.5,100,150,PEDOT:PSS,PFN-Br,1.93E-04,4.07E-03,,,,0.843,17.1,65.1,9.4,9.384
69,34,link,10.1002/adma.201700437,J52,,,m-ITIC,,,,,,,,,,,,,,,,,0.701,17.16,49.73,5.98,5.982
569,34,link,10.1002/adma.201700437,J52,-5.21,-2.99,IEICO,-5.32,-3.95,1:01,CB,12,DIO,0.5,100,150,PEDOT:PSS,PFN-Br,1.03E-04,6.38E-04,,,,0.848,15.1,51,6.5,6.53
64,35,link,10.1021/acs.chemmater.7b03928,J71,-5.4,-3.24,ITVffIC,-5.58,-4.04,01:01.2,CF,,CN,0.5,100,160,PEDOT:PSS,PDINO,2.06E-04,2.15E-04,,,,0.81,20.6,63.18,10.54,10.542
65,35,link,10.1021/acs.chemmater.7b03928,J71,-5.4,-3.24,ITVfIC,-5.56,-4.01,01:01.2,CF,,,,100,160,PEDOT:PSS,PDINO,3.62E-04,4.31E-04,,,,0.84,19.73,58.67,9.72,9.723
66,35,link,10.1021/acs.chemmater.7b03928,J71,-5.4,-3.24,ITVIC,-5.46,-3.97,01:01.2,CF,,,,100,160,PEDOT:PSS,PDINO,3.66E-04,2.82E-04,,,,0.89,14.47,57.64,7.34,7.423
68,36,link,10.1039/C8TA03453B,J71,-5.4,-3.24,MeIC2,-5.56,-3.97,1:01,CF,18,,,100,150,PEDOT:PSS,PDIN,4.62E-04,3.70E-04,,,,0.885,16.9,69.4,10.2,10.38
71,37,link,10.1002/aenm.201702324,J70,-5.37,-2.91,m-ITIC,-5.52,-3.82,01:01.5,CF,20,,,,150,PEDOT:PSS,PDINO,1.93E-04,8.40E-04,,,,0.92,18.09,69.82,11.62,11.62
72,37,link,10.1002/aenm.201702324,J71,-5.4,-3.24,m-ITIC,-5.52,-3.82,01:01.5,CF,20,,,,150,PEDOT:PSS,PDINO,1.09E-04,4.66E-04,,,,0.944,18.09,70.59,12.05,12.055
73,37,link,10.1002/aenm.201702324,J72,-5.42,-3.29,m-ITIC,-5.52,-3.82,01:01.5,CF,20,,,,150,PEDOT:PSS,PDINO,4.60E-05,3.98E-04,,,,0.962,16.35,65.03,10.23,10.228
74,37,link,10.1002/aenm.201702324,J73,-5.46,-2.92,m-ITIC,-5.52,-3.82,01:01.5,CF,20,,,,150,PEDOT:PSS,PDINO,3.80E-05,3.10E-04,,,,0.974,16.45,66.87,10.71,10.714
75,37,link,10.1002/aenm.201702324,J74,-5.56,-3.06,m-ITIC,-5.52,-3.82,01:01.5,CF,20,,,,150,PEDOT:PSS,PDINO,2.40E-05,4.05E-04,,,,0.99,15.89,61.18,9.63,9.624
77,38,link,10.1002/adma.201703344,J91,-5.5,-3.02,m-ITIC,-5.54,,01:01.5,CF,12,,,100,150,PEDOT:PSS,PDINO,1.02E-04,3.00E-04,,,,0.984,18.03,65.54,11.63,11.628
572,38,link,10.1002/adma.201703344,J52,-5.17,-2.99,m-ITIC,-5.54,,01:01.5,CF,12,,,100,150,PEDOT:PSS,PDINO,2.09E-05,2.38E-04,,,,0.701,17.16,49.73,5.98,5.982
78,39,link,10.1039/C7TA11339K,J71,-5.4,-3.24,m-MeIC,-5.54,-3.9,1:01,CF,,,,100,150,PEDOT:PSS,PDINO,2.06E-04,2.52E-04,,,,0.919,18.45,69.2,11.73,11.733
79,39,link,10.1039/C7TA11339K,PBDB-T,-5.33,-3.53,m-MeIC,-5.54,-3.9,1:01,CF,,,,100,150,PEDOT:PSS,PDINO,2.18E-04,2.69E-04,,,,0.843,18.16,69.7,10.68,10.67
80,39,link,10.1039/C7TA11339K,PTB7-Th,-5.2,-3.6,m-MeIC,-5.54,-3.9,1:01,CF,,CN,0.5,100,,PEDOT:PSS,PDINO,1.36E-04,1.85E-04,,,,0.796,16.52,61.7,8.12,8.114
82,40,link,10.1039/C8CC06198J,J61,-5.32,-3.38,TP21,-5.46,-3.61,1:01,CB,20,,,100,140,PEDOT:PSS,Ca,2.50E-04,7.40E-06,,,,1.05,10.92,51,5.81,5.848
83,41,link,10.1002/adma.201704713,FTAZ,-5.38,-3.17,IHIC2,-5.69,-3.86,01:01.5,CF,13.5,,,100,,MoOx,ZnO,1.80E-03,2.30E-05,,,,0.775,15.7,61.2,7.45,7.447
84,41,link,10.1002/adma.201704713,FTAZ,-5.38,-3.17,IOIC2,-5.41,-3.78,01:01.5,CF,13.5,DIO,0.2,100,,MoOx,ZnO,4.80E-03,6.80E-04,,,,0.9,19.7,69.3,12.3,12.287
85,42,link,10.1002/adma.201604241,PBQ-0F,-5.18,-3.48,ITIC,-5.53,-3.94,1:01,THF,12,isopropanol,5,100,160,MoOx,ZnO,7.80E-04,8.20E-04,,,,0.69,16.16,59.91,6.68,6.68
86,42,link,10.1002/adma.201604241,PBQ-QF,-5.34,-3.62,ITIC,-5.53,-3.94,1:01,THF,12,isopropanol,5,100,160,MoOx,ZnO,8.60E-04,8.30E-04,,,,0.83,17.16,62.49,8.9,8.9
87,42,link,10.1002/adma.201604241,PBQ-4F,-5.49,-3.7,ITIC,-5.53,-3.94,1:01,THF,12,isopropanol,5,100,160,MoOx,ZnO,1.00E-03,1.00E-03,,,,0.95,17.87,66.8,11.34,11.34
88,43,link,10.1002/adma.201704837,PBTA-TF,-5.36,-3.42,ITCC,-5.47,-3.76,1:01,CF,16,DIO,0.5,105,,PEDOT:PSS,PFN-Br,,,,,,1,15.54,67,10.4,10.412
89,43,link,10.1002/adma.201704837,PBTA-TF,-5.36,-3.42,IT-M,-5.58,-3.85,1:01,CF,16,DIO,0.5,98,,PEDOT:PSS,PFN-Br,,,,,,0.97,17.76,71,12.2,12.231
90,43,link,10.1002/adma.201704837,PBTA-TF,-5.36,-3.42,IT-4F,-5.66,-4.14,1:01,CF,16,DIO,0.5,96,,PEDOT:PSS,PFN-Br,,,,,,0.73,20.24,72,10.6,10.638
570,43,link,10.1002/adma.201704837,PBTA-TF,-5.36,-3.42,IT-M,-5.58,-3.85,1:01,THF,16,isopropanol,1,108,,PEDOT:PSS,PFN-Br,,,,,,0.96,18.37,67,12,11.816
571,43,link,10.1002/adma.201704837,PBTA-TF,-5.36,-3.42,IT-M,-5.58,-3.85,1:01,o-xylene,24,PN,0.5,112,,PEDOT:PSS,PFN-Br,,,,,,0.97,18.74,72,13.1,13.088
91,44,link,10.1002/adma.201600281,PBDB-T,-5.33,-2.92,ITIC,-5.51,-3.78,1:01,CB,20,DIO,0.5,100,160,MoOx,ZnO,2.10E-04,3.13E-04,,,,0.899,16.81,74.2,11.21,11.213
566,44,link,10.1002/adma.201600281,PBDB-T,-5.33,-2.92,ITIC,-5.96,-3.98,1:01,DCB,20,DIO,3,100,,MoOx,ZnO,,,,,,0.853,12.8,68.2,7.45,7.446
92,45,link,10.1021/jacs.7b02677,PBDB-T-SF,-5.4,-3.6,IT-4F,-5.66,-4.14,1:01,CB,25,DIO,0.5,100,,MoOx,ZnO,3.25E-04,4.32E-04,,,,0.88,20.88,71.3,13.1,13.101
567,45,link,10.1021/jacs.7b02677,PBDB-T,-5.28,-3.48,ITIC,-5.5,-3.89,1:01,CB,20,DIO,0.5,100,,MoOx,ZnO,2.10E-04,3.13E-04,,,,0.9,17.03,0.721,11.05,0.111
93,46,link,10.1021/acsami.5b10211,PCDTBT-C12,-5.23,-3.26,SM1,-5.93,-3.5,1:02,DCB,,,,52,90,PEDOT:PSS,LiF,3.00E-05,1.10E-05,,,,1.04,4.79,56,2.78,2.79
94,46,link,10.1021/acsami.5b10211,PCDTBT-C12,-5.23,-3.26,SM2,-5.98,-3.62,1:02,DCB,,,,60,90,PEDOT:PSS,LiF,1.10E-05,9.70E-07,,,,1.11,2.21,30,0.74,0.736
95,46,link,10.1021/acsami.5b10211,PCDTBT-C12,-5.23,-3.26,SM3,-5.95,-3.68,1:02,DCB,,,,66,90,PEDOT:PSS,LiF,2.70E-05,4.70E-07,,,,1.09,1.71,30,0.56,0.559
96,46,link,10.1021/acsami.5b10211,PCDTBT-C12,-5.23,-3.26,SM4,-5.8,-3.65,1:02,DCB,,,,57,90,PEDOT:PSS,LiF,1.00E-05,1.10E-09,,,,1.24,0.37,28,0.13,0.128
97,47,link,10.1002/adma.201606054,PTB7,-5.21,-3.36,SFBRCN,-5.93,-3.86,01:01.2,CB,22,DIO,0.75,100,,MoOx,ZnO,5.50E-05,1.20E-04,,,,0.85,13.85,60.7,7.34,7.146
98,47,link,10.1002/adma.201606054,PTB7-Th,-5.27,-3.55,SFBRCN,-5.93,-3.86,01:01.2,CB,22,DIO,0.75,100,,MoOx,ZnO,1.50E-04,2.20E-04,,,,0.9,17.24,64,9.9,9.93
99,48,link,10.1002/adma.201700254,PBDB-T,,,ITIC,-5.5,-3.9,1:01,CB,20,DIO,1,110,100,PEDOT:PSS,PFN-Br,,1.28E-04,,,,0.93,17,67,10.6,10.593
100,48,link,10.1002/adma.201700254,PBDB-T,,,ITCC,-5.47,-3.76,1:01,CB,20,DIO,1,110,100,PEDOT:PSS,PFN-Br,,6.74E-04,,,,1.01,15.9,71,11.4,11.402
101,49,link,10.1002/adma.201602642,PBDTTT-E-T,-5.09,,IEIC,-5.47,-3.9,01:01.5,CB,25,DIO,2,105,100,PEDOT:PSS,PFN-Br,,,,,,0.9,11.7,47,4.9,4.949
102,49,link,10.1002/adma.201602642,PBDTTT-E-T,-5.09,,IEICO,-5.32,-3.95,1:01,CB,20,DIO,2,95,100,PEDOT:PSS,PFN-Br,1.50E-03,4.60E-04,,,,0.82,17.7,58,8.4,8.418
419,50,link,10.1039/C9EE02531F,PBTT,,,IEICO,,,,,,,,,,,,,,,,,0.86,17.9,61.3,9.5,9.437
[...]
482,244,link,,FTAZ,-5.38,-3.17,F9IC,-5.52,-3.97,01:01.5,CF,,DIO,0.25,,,MoOx,ZnO/PFN-Br,2.10E-04,1.50E-04,,,,0.873,20.2,66.4,11.7,11.709
483,245,link,,PBDTTz-SBP,-5.46,-3.5,ITIC,-5.6,-3.93,1:01,CB,,,,125,,PEDOT:PSS,PFN-Br,1.42E-04,3.90E-05,,,,0.914,18.52,71.43,12.09,12.091
484,245,link,,PBDTTz-BP,,,ITIC,-5.6,-3.93,1:01,CB,,,,125,,PEDOT:PSS,PFN-Br,,,,,,0.832,17.96,61.56,9.2,9.199
485,246,link,,PJ1,-5.38,-3.38,m-ITIC,-5.54,-3.95,01:01.5,CF,,DIO,0.5,110.9,130,PEDOT:PSS,PDINO,,,,,,1.031,11.1,56,6.41,6.409
486,246,link,,PJ1,-5.38,-3.38,IDIC,-5.67,-4.1,01:01.5,CF,,DIO,0.5,109.1,130,PEDOT:PSS,PDINO,,,,,,0.958,12,53.6,6.18,6.162
487,246,link,,PJ2,-5.14,-3.33,m-ITIC,-5.54,-3.95,01:01.5,CF,,DIO,0.5,112.6,130,PEDOT:PSS,PDINO,,,,,,0.988,16.8,62.3,10.34,10.341
488,246,link,,PJ2,-5.14,-3.33,IDIC,-5.67,-4.1,01:01.5,CF,,DIO,0.5,110.3,130,PEDOT:PSS,PDINO,,,,,,0.939,17,75.3,12.01,12.02
489,246,link,,PJ3,-5.01,-3.26,m-ITIC,-5.54,-3.95,01:01.5,CF,,DIO,0.5,117.8,130,PEDOT:PSS,PDINO,,,,,,0.96,12.7,63.5,7.76,7.742
490,246,link,,PJ3,-5.01,-3.26,IDIC,-5.67,-4.1,01:01.5,CF,,DIO,0.5,114.5,130,PEDOT:PSS,PDINO,,,,,,0.908,12.8,69.8,8.11,8.112
491,247,link,,2D-PBTCl,-5.45,-3.6,ITIC,-5.48,-3.83,1:01,CB,8,DIO,0.25,100,,MoOx,ZnO,4.90E-04,,,,,0.91,15.79,61.32,8.81,8.811
492,247,link,,2D-PBTCl2,-5.43,-3.63,ITIC,-5.48,-3.83,1:01,CB,8,DIO,0.25,90,,MoOx,ZnO,1.10E-04,,,,,0.87,14.52,58.43,7.38,7.381
493,247,link,,PTB7-Th,-5.38,-3.7,ITIC,-5.48,-3.83,1:01,CB,8,DIO,0.25,90,,MoOx,ZnO,,,,,,0.82,14.76,57.09,6.91,6.91
494,248,link,,PBClT,-5.47,-3.61,ITIC,-5.48,-3.83,1:01,CB,8,,,100,,MoOx,ZnO,7.41E-05,,,,,1.01,13.95,60.05,8.46,8.461
495,249,link,,PBDB-T,-5.36,-3.54,BDCPDT-IC,-5.41,-3.87,1:01,,12,DIO,1,,,MoOx,ZnO,,,,,,0.86,16.56,65.52,9.33,9.331
496,249,link,,PBDB-T,-5.36,-3.54,BDCPDT-FIC,-5.52,-4,1:01,,12,,,,,MoOx,ZnO,,,,,,0.7,19.12,60.67,8.12,8.12
497,250,link,,PBFTT,-5.47,-3.56,ITIC,-5.6,-3.85,01:01.5,CB,8,,,,,MoOx,ZnO,4.62E-04,1.55E-04,,,,0.94,16,60.5,9.1,9.099
498,251,link,,PBDB-O,-5.3,-2.82,ITIC,-5.51,-3.78,1:01,CB,20,DIO,0.5,,160,MoOx,ZnO,3.29E-05,6.55E-05,,,,0.846,11.8,43.3,4.35,4.323
499,251,link,,PBDB-T,-5.33,-2.92,ITIC,-5.51,-3.78,1:01,CB,20,DIO,0.5,,160,MoOx,ZnO,2.32E-04,2.93E-04,,,,0.899,16.8,74.2,11.21,11.207
500,252,link,,PBDB-T,-5.31,-3.51,BDTIT-M,-5.4,-3.85,1:01,CB,20,DIO,0.75,100,100,PEDOT:PSS,PDIN,8.84E-04,3.00E-04,,,,0.903,17.56,71.3,11.31,11.306
501,252,link,,PBDB-T,-5.31,-3.51,BDTThIT-M,-5.35,-3.82,1:01,CB,20,DIO,0.75,100,100,PEDOT:PSS,PDIN,9.97E-04,3.93E-04,,,,0.942,18.03,71.4,12.12,12.127
508,252,link,,PBZ,,,ITIC,,,,,,,,,,,,,,,,,0.79,17.2,59,8,8.017
509,252,link,,PFBZ,,,ITIC,,,,,,,,,,,,,,,,,0.89,18.8,62,10.4,10.374
510,252,link,,J51,,,ITIC,,,,,,,,,,,,,,,,,0.84,14.08,61,7.03,7.215
511,252,link,,J60,,,ITIC,,,,,,,,,,,,,,,,,0.92,9.78,57.45,5.17,5.169
512,252,link,,J61,,,ITIC,,,,,,,,,,,,,,,,,0.91,14.95,66.55,9.15,9.054
502,253,link,,PTB7,-5.14,-3.51,IEICO-4F,-5.44,-4.19,01:01.5,CB,10,DIO,0.5,,,PEDOT:PSS,PFN-Br,3.14E-04,4.53E-04,,,,0.54,14.73,28.92,2.3,2.3
503,253,link,,PTB7-Th,-5.22,-3.64,IEICO-4F,-5.44,-4.19,01:01.5,CB,10,CN,1.5,,,PEDOT:PSS,PFN-Br,6.57E-04,4.22E-04,,,,0.72,23.21,69.41,11.6,11.599
504,254,link,,PBO,-5.47,-3.67,ITIC,-5.53,-3.88,1:02,DCB,,DIO,0.5,85,,PEDOT:PSS,LiF,1.30E-05,4.20E-05,,,,0.92,14.3,54,7.1,7.104
505,255,link,,PBDB-T,-5.28,,TTIC-M,-5.3,-3.82,1:01,CB,20,,,,,PEDOT:PSS,PDINO,8.70E-05,8.60E-05,,,,0.83,19.07,63,9.85,9.972
506,255,link,,PBDB-T,-5.28,,TTIC,-5.33,-3.87,1:01,CB,20,,,,,PEDOT:PSS,PDINO,1.63E-04,1.61E-04,,,,0.8,20.58,66,10.73,10.866
507,255,link,,PBDB-T,-5.28,,TTIC-F,-5.34,-3.88,1:01,CB,20,,,,,PEDOT:PSS,PDINO,1.29E-04,1.38E-04,,,,0.71,21.26,63,9.38,9.51
513,256,link,,J71,-5.36,-3.42,ITIC,-5.48,-3.83,01:01.3,CB,10,,,,,MoOx,ZnO,1.82E-03,,,,,0.96,14.81,63.63,9.03,9.047
514,257,link,,FTAZ,-5.48,-3.47,ITIC,-5.64,-4.04,01:01.5,CF,6,,,90,,MoOx,ZnO,9.30E-05,5.90E-06,,,,0.911,16.71,58,8.77,8.829
515,257,link,,HTAZ,-5.42,-3.44,ITIC,-5.64,-4.04,01:01.5,CF,6,,,90,,MoOx,ZnO,1.90E-05,1.50E-06,,,,0.851,13.03,40.8,4.5,4.524
517,258,link,,PTB7-Th,,,IFT-ECA,-5.62,-3.58,01:01.5,DCB,,CN,3,120,,MoOx,ZnO,,,,,,0.76,0.2,23.6,0.03,0.036
518,258,link,,PTB7-Th,,,IFT-M,-5.83,-3.65,01:01.5,DCB,,CN,3,120,,MoOx,ZnO,7.80E-05,7.80E-05,,,,0.76,0.8,24.9,0.15,0.151
519,258,link,,PTB7-Th,,,IFT-IC,-5.7,-3.87,01:01.5,DCB,,CN,3,120,,MoOx,ZnO,5.40E-05,5.40E-05,,,,1.03,8,50.3,4.14,4.145
520,258,link,,PTB7-Th,,,IFT-TH,-5.85,-3.67,01:01.5,DCB,,CN,3,120,,MoOx,ZnO,7.60E-06,7.60E-06,,,,0.9,13.2,60.2,7.16,7.152
521,259,link,,PBDB-T,,,IT-M,,,1:01,CB,10,DIO,1,100,,PEDOT:PSS,PFN-Br,2.09E-04,1.22E-04,,,,0.961,16.69,70,11.5,11.227
522,260,link,,PTB7-Th,,,4TIC,-5.28,-3.87,1:02,CB,30,DIO,0.5,,,PEDOT:PSS,C60-bissalt,,6.20E-04,,,,0.78,18.8,72,10.43,10.558
523,260,link,,PTB7-Th,,,ITIC,-5.43,-3.81,01:01.3,CB,22.5,,,,,PEDOT:PSS,C60-bissalt,,2.40E-04,,,,0.83,15.18,57,7.28,7.182
524,261,link,,TBF-BDD,-5.37,-3.65,ITIC,,,1:01,CF,,,,,110,PEDOT:PSS,PDINO,1.34E-04,1.18E-04,,,,0.85,14.94,56,7.13,7.111
525,261,link,,TBF-BT,-5.4,-3.55,ITIC,,,1:01,CF,,,,,110,PEDOT:PSS,PDINO,8.20E-05,7.00E-05,,,,0.81,13.89,63,7.03,7.088
526,262,link,,PBT,-5.43,-3.65,CzC6C8,-5.79,-3.79,1:03,CB,25,,,97,130,MoOx,ZnO,1.23E-06,2.88E-06,,,,0.99,8.24,41,3.3,3.345
527,262,link,,PBT,-5.43,-3.65,CZC8,-5.72,-3.74,1:03,CB,25,,,103,130,MoOx,ZnO,2.02E-06,3.27E-06,,,,1.03,9,50,4.64,4.635
528,262,link,,PTB7-Th,-5.23,-3.65,CZC8,-5.72,-3.74,1:03,CB,25,,,102,100,MoOx,ZnO,4.73E-05,4.89E-05,,,,0.98,11.24,45,4.91,4.957
529,262,link,,PTFBDT,-5.5,-3.69,CZC8,-5.72,-3.74,1:03,CB,25,,,94,150,MoOx,ZnO,1.88E-06,1.60E-06,,,,1.16,7.99,51,4.67,4.727
530,263,link,,PBDB-T,-5.33,-3.53,IDTC,-5.29,-3.37,1:01,CF,,,,100,160,PEDOT:PSS,PDINO,7.54E-05,1.48E-04,,,,0.917,16.56,61.61,9.35,9.356
531,263,link,,PBDB-T,-5.33,-3.53,IDTO,-5.11,-3.38,1:01,CF,,,,100,160,PEDOT:PSS,PDINO,1.10E-04,1.78E-04,,,,0.943,16.25,65.41,10.02,10.023
532,264,link,,PTB7-Th,-5.2,-3.6,BTA7,-5.56,-3.66,1:02,CF,15,DPE,3,,80,PEDOT:PSS,Ca,,,,,,1.05,10.44,42,4.6,4.604
533,264,link,,PTB7-Th,-5.2,-3.6,BTA1,-5.51,-3.55,1:02,CF,15,DPE,3,,80,PEDOT:PSS,Ca,,,,,,0.93,0.2,29,0.06,0.054
534,264,link,,PTB7-Th,-5.2,-3.6,BTA2,-5.43,-3.38,1:02,CF,15,DPE,3,,80,PEDOT:PSS,Ca,,,,,,1.01,0.05,27,0.01,0.014
535,265,link,,P3HT,-5,-3.1,BTA1,-5.51,-3.55,01:00.6,CF,,CN,0.8,,100,PEDOT:PSS,Ca,,,,,,1.02,7.34,70,5.24,5.241
536,265,link,,P3HT,-5,-3.1,BTA2,-5.43,-3.38,0.6:1,CF,,DIO,0.8,,100,PEDOT:PSS,Ca,4.90E-04,3.40E-04,,,,1.22,6.15,60,4.5,4.502
537,266,link,,P3HT,-5,-3.1,BT2,-5.5,-3.53,1.5:1,CF,15,,,,150,PEDOT:PSS,Ca,1.20E-04,4.60E-05,,,,0.97,7.59,67,4.93,4.933
538,266,link,,P3HT,-5,-3.1,BT2b,-5.41,-3.56,1:01,CF,15,,,,150,PEDOT:PSS,Ca,6.10E-05,8.40E-05,,,,0.92,10.02,66,6.08,6.084
539,267,link,,PBDB-T,-5.33,-2.92,CDTCN,-5.39,-3.8,1:01,CB,20,DIO,0.75,107,80,MoOx,ZnO,6.98E-05,1.87E-04,,,,0.96,11.26,57.58,6.23,6.224
540,268,link,,PTB7-Th,-5.2,-3.59,IHIC,-5.45,-3.93,01:01.5,DCB,20,CN,1,100,,MoOx,ZnO,6.80E-04,1.20E-03,,,,0.754,19.01,68.1,9.77,9.761
541,269,link,,PBDB-T,-5.33,-2.92,ITIC,-5.96,-3.98,1:01,CB,20,DIO,0.5,100,,MoOx,ZnO,,,,,,0.88,13.8,59.8,7.4,7.262
542,270,link,,PBDTTT-C-T,-5.11,-3.25,IDT-2BM,-5.6,-4.8,1.5:1,o-DCB,30,CN,6,,,PEDOT:PSS,Ca,2.50E-04,1.00E-05,,,,0.766,10.1,55.1,4.26,4.263
543,270,link,,PBDTTT-C-T,-5.11,-3.25,IDTT-2BM,-5.5,-3.8,1.5:1,o-DCB,30,DIO,3,,,PEDOT:PSS,Ca,4.10E-04,1.30E-05,,,,0.851,9.87,57.2,4.81,4.804
544,271,link,,PffQx-T,-5.36,-3.56,ITIC,-5.48,-3.83,01:01.5,CF,20,,,100,170,PEDOT:PSS,PDINO,2.31E-04,1.73E-04,,,,0.87,16.33,59.6,8.47,8.467
545,271,link,,PffQx-PS,-5.4,-3.55,ITIC,-5.48,-3.83,1:01,CF,20,DIO,0.1,100,90,PEDOT:PSS,PDINO,4.55E-05,2.41E-05,,,,0.97,14.96,62.9,9.12,9.128
550,272,link,,P3HT,,,IDTBR,,,,CB,,BrA,,,,PEDOT:PSS,ZnO,,,,,,0.913,12.8,65.7,5.89,7.678
551,273,link,,PBDB-T,-5.28,-3.48,ITIC,-5.51,-3.78,1:01,CB,20,,,100,160,MoOx,ZnO,1.50E-04,5.10E-05,,,,0.831,14.5,71.1,8.6,8.567
554,274,link,,PBDB-T,,,ITIC,,,1:01,CB,20,DIO,0.5,100,,MoOx,ZnO,3.87E-04,4.45E-04,,,,0.87,19.11,64.15,10.53,10.665
555,275,link,,PTB7-Th,,,IDTBR,,,,,,,,,,,,,,,,,0.992,17.7,57.3,10.1,10.061
556,275,link,,PTB7-Th,,,IEICO,,,,,,,,,,,,,,,,,0.883,14.8,61.2,7.95,7.998
557,275,link,,PTB7-Th,,,IEICO-4F,,,,,,,,,,,,,,,,,0.707,26.6,66,12.4,12.412
562,276,link,,J101,-5.3,-3.5,ITIC,-5.56,-3.79,1:01,CF,16,,,98,150,PEDOT:PSS,PDINO,,,,,,0.951,17.7,73.65,12.47,12.397
563,276,link,,J101,-5.3,-3.5,ZITI,-5.53,-3.8,1:01,CF,16,,,105,120,PEDOT:PSS,PDINO,2.18E-04,1.27E-04,,,,0.937,21.25,72.48,14.43,14.432
564,276,link,,J71,-5.27,-3.6,ZITI,-5.53,-3.8,1:01,CF,16,,,98,,PEDOT:PSS,PDINO,3.55E-04,4.52E-05,,,,0.912,20.23,69.49,12.82,12.821
565,277,link,,PTB7-Th,,,DICTF-C10,-5.67,-3.89,2:03,o-DCB,10,,,68,,MoOx,ZnO,4.60E-05,2.30E-05,,,,0.865,19.255,50,6.93,8.328